# nm
# Wavelength	n	k
300	1.541271	0.05624092
310	1.52356	0.06677757
320	1.512506	0.07939149
330	1.508524	0.0903928
340	1.507641	0.09458568
350	1.499915	0.09163715
360	1.483193	0.08842682
370	1.461954	0.09414057
380	1.442732	0.1062488
390	1.426084	0.1228738
400	1.430177	0.1387442
410	1.500065	0.1292037
420	1.567226	0.1220498
430	1.628355	0.1203193
440	1.684135	0.1229209
450	1.736377	0.1277895
460	1.784291	0.1344689
470	1.829745	0.1424723
480	1.873431	0.1530291
490	1.915713	0.1665653
500	1.956713	0.1857551
510	1.993711	0.2127726
520	2.021111	0.2480181
530	2.038645	0.2853535
540	2.051483	0.3265579
550	2.063656	0.3474996
560	2.086143	0.2651025
570	2.070164	0.1593249
580	2.019193	0.07966268
590	1.959688	0.03539861
600	1.910469	0.01513218
610	1.875616	0.005476248
620	1.813463	0.02141071
630	1.81353	0.004161637
640	1.797888	0
650	1.782132	0
660	1.768515	0
670	1.755993	0
680	1.744466	0
690	1.733846	0
700	1.724053	0
710	1.715015	0
720	1.706667	0
730	1.69895	0
740	1.691812	0
750	1.685204	0
760	1.679083	0
770	1.67341	0
780	1.668147	0
790	1.663264	0
800	1.658729	0
810	1.654517	0
820	1.650601	0
830	1.646959	0
840	1.643571	0
850	1.640417	0
860	1.637481	0
870	1.634745	0
880	1.632196	0
890	1.62982	0
900	1.627605	0
910	1.625539	0
920	1.623611	0
930	1.621812	0
940	1.620133	0
950	1.618566	0
960	1.617104	0
970	1.615738	0
980	1.614462	0
990	1.613271	0
1000	1.612159	0
